# Transmission through ionization/dissociation front produced by UV and 
# X-rays from a GRB.  Spectrum calculated by B.T. Draine
# References:
# Draine, B.T. 2000: Gamma Ray Bursts in Molecular Clouds: H2 Absorption
#     and Fluorescence, ApJ 532, 273
# Draine, B.T., & Hao, L. 2002, Gamma Ray Burst in a Molecular Cloud:
#     Destruction of Dust and H2, and Emergent Spectrum, ApJ 569, 780
# 
#  1.000E+03 = n_H (cm-3)
#     -0.500 = beta ( L_nu propto nu^{beta} )
# 
# N(H), N(H2+), and N(H2_vJ) from h2abs_nvj.dat                                   
#      28765 H2 absorption lines from 299 levels of H2
#     222969 = NWAV = number of wavelengths
#       2771 = 2*KKMAX+1 points in smoothing kernel
#      260.0 = lambda/FWHM(lambda) in final spectrum
#  1.002E+03 = time (s)
#  3.596E+19 = N(H) (cm-2)
#  6.732E+16 = N(H2+) (cm-2)
#  5.905E-01 = tau_d
#       1596 = number of output frequencies
# 
# transmission as a function of frequency
#   f (cm-1)   I/I_0   tau(gas)
# ------------------------------
  56797.09 8.163E-01 2.029E-01
  56823.24 8.164E-01 2.029E-01
  56849.40 8.163E-01 2.029E-01
  56875.58 8.163E-01 2.030E-01
  56901.76 8.163E-01 2.030E-01
  56927.96 8.163E-01 2.030E-01
  56954.17 8.162E-01 2.031E-01
  56980.40 8.162E-01 2.031E-01
  57006.63 8.162E-01 2.031E-01
  57032.88 8.161E-01 2.032E-01
  57059.14 8.160E-01 2.033E-01
  57085.41 8.159E-01 2.035E-01
  57111.69 8.157E-01 2.037E-01
  57137.99 8.156E-01 2.038E-01
  57164.30 8.154E-01 2.040E-01
  57190.62 8.153E-01 2.042E-01
  57216.95 8.151E-01 2.044E-01
  57243.29 8.150E-01 2.046E-01
  57269.65 8.149E-01 2.046E-01
  57296.02 8.149E-01 2.046E-01
  57322.40 8.150E-01 2.046E-01
  57348.79 8.151E-01 2.044E-01
  57375.20 8.153E-01 2.043E-01
  57401.61 8.154E-01 2.041E-01
  57428.04 8.156E-01 2.039E-01
  57454.48 8.157E-01 2.037E-01
  57480.94 8.158E-01 2.036E-01
  57507.40 8.159E-01 2.035E-01
  57533.88 8.159E-01 2.034E-01
  57560.37 8.160E-01 2.033E-01
  57586.87 8.161E-01 2.033E-01
  57613.39 8.161E-01 2.032E-01
  57639.91 8.162E-01 2.031E-01
  57666.45 8.162E-01 2.031E-01
  57693.00 8.162E-01 2.030E-01
  57719.57 8.163E-01 2.030E-01
  57746.14 8.163E-01 2.030E-01
  57772.73 8.163E-01 2.030E-01
  57799.33 8.163E-01 2.030E-01
  57825.94 8.162E-01 2.031E-01
  57852.57 8.161E-01 2.032E-01
  57879.20 8.160E-01 2.033E-01
  57905.85 8.157E-01 2.037E-01
  57932.51 8.154E-01 2.041E-01
  57959.19 8.150E-01 2.046E-01
  57985.87 8.144E-01 2.053E-01
  58012.57 8.138E-01 2.061E-01
  58039.28 8.131E-01 2.069E-01
  58066.00 8.126E-01 2.076E-01
  58092.74 8.121E-01 2.081E-01
  58119.49 8.118E-01 2.085E-01
  58146.25 8.117E-01 2.087E-01
  58173.02 8.117E-01 2.087E-01
  58199.80 8.117E-01 2.086E-01
  58226.60 8.118E-01 2.085E-01
  58253.41 8.118E-01 2.085E-01
  58280.23 8.117E-01 2.087E-01
  58307.06 8.113E-01 2.091E-01
  58333.91 8.108E-01 2.098E-01
  58360.77 8.099E-01 2.108E-01
  58387.64 8.088E-01 2.122E-01
  58414.52 8.074E-01 2.140E-01
  58441.42 8.057E-01 2.160E-01
  58468.32 8.036E-01 2.187E-01
  58495.24 8.011E-01 2.218E-01
  58522.18 7.981E-01 2.255E-01
  58549.12 7.951E-01 2.293E-01
  58576.08 7.922E-01 2.330E-01
  58603.05 7.896E-01 2.363E-01
  58630.03 7.876E-01 2.387E-01
  58657.03 7.864E-01 2.403E-01
  58684.03 7.859E-01 2.409E-01
  58711.05 7.861E-01 2.407E-01
  58738.08 7.870E-01 2.395E-01
  58765.13 7.885E-01 2.376E-01
  58792.19 7.906E-01 2.349E-01
  58819.26 7.934E-01 2.315E-01
  58846.34 7.965E-01 2.275E-01
  58873.43 7.998E-01 2.234E-01
  58900.54 8.031E-01 2.193E-01
  58927.66 8.060E-01 2.157E-01
  58954.79 8.084E-01 2.127E-01
  58981.93 8.101E-01 2.106E-01
  59009.09 8.114E-01 2.090E-01
  59036.26 8.121E-01 2.082E-01
  59063.44 8.126E-01 2.075E-01
  59090.64 8.130E-01 2.071E-01
  59117.84 8.132E-01 2.068E-01
  59145.06 8.136E-01 2.063E-01
  59172.29 8.139E-01 2.059E-01
  59199.54 8.143E-01 2.054E-01
  59226.79 8.146E-01 2.050E-01
  59254.06 8.149E-01 2.047E-01
  59281.35 8.150E-01 2.045E-01
  59308.64 8.152E-01 2.044E-01
  59335.95 8.152E-01 2.043E-01
  59363.27 8.152E-01 2.044E-01
  59390.60 8.150E-01 2.045E-01
  59417.94 8.148E-01 2.048E-01
  59445.30 8.144E-01 2.053E-01
  59472.67 8.136E-01 2.063E-01
  59500.06 8.126E-01 2.075E-01
  59527.45 8.109E-01 2.096E-01
  59554.86 8.083E-01 2.129E-01
  59582.28 8.049E-01 2.171E-01
  59609.71 8.001E-01 2.230E-01
  59637.16 7.943E-01 2.303E-01
  59664.62 7.873E-01 2.392E-01
  59692.09 7.786E-01 2.502E-01
  59719.57 7.686E-01 2.631E-01
  59747.07 7.584E-01 2.766E-01
  59774.58 7.484E-01 2.898E-01
  59802.10 7.391E-01 3.023E-01
  59829.63 7.316E-01 3.125E-01
  59857.18 7.263E-01 3.199E-01
  59884.74 7.232E-01 3.241E-01
  59912.31 7.228E-01 3.246E-01
  59939.90 7.251E-01 3.215E-01
  59967.49 7.297E-01 3.151E-01
  59995.10 7.367E-01 3.056E-01
  60022.73 7.452E-01 2.941E-01
  60050.36 7.543E-01 2.819E-01
  60078.01 7.635E-01 2.699E-01
  60105.67 7.718E-01 2.590E-01
  60133.35 7.782E-01 2.508E-01
  60161.04 7.824E-01 2.454E-01
  60188.73 7.843E-01 2.429E-01
  60216.45 7.843E-01 2.429E-01
  60244.17 7.826E-01 2.452E-01
  60271.91 7.789E-01 2.499E-01
  60299.66 7.737E-01 2.566E-01
  60327.42 7.675E-01 2.646E-01
  60355.20 7.614E-01 2.727E-01
  60382.99 7.560E-01 2.797E-01
  60410.79 7.521E-01 2.849E-01
  60438.61 7.504E-01 2.871E-01
  60466.43 7.511E-01 2.863E-01
  60494.27 7.535E-01 2.830E-01
  60522.13 7.575E-01 2.778E-01
  60549.99 7.615E-01 2.725E-01
  60577.87 7.653E-01 2.675E-01
  60605.76 7.680E-01 2.640E-01
  60633.67 7.695E-01 2.620E-01
  60661.58 7.692E-01 2.625E-01
  60689.51 7.678E-01 2.642E-01
  60717.46 7.652E-01 2.677E-01
  60745.41 7.609E-01 2.733E-01
  60773.38 7.549E-01 2.812E-01
  60801.36 7.479E-01 2.904E-01
  60829.36 7.399E-01 3.012E-01
  60857.36 7.289E-01 3.162E-01
  60885.39 7.166E-01 3.332E-01
  60913.42 7.025E-01 3.532E-01
  60941.46 6.866E-01 3.760E-01
  60969.52 6.712E-01 3.987E-01
  60997.60 6.571E-01 4.198E-01
  61025.68 6.461E-01 4.368E-01
  61053.78 6.396E-01 4.469E-01
  61081.89 6.381E-01 4.492E-01
  61110.01 6.423E-01 4.427E-01
  61138.15 6.512E-01 4.290E-01
  61166.30 6.645E-01 4.087E-01
  61194.46 6.809E-01 3.844E-01
  61222.64 6.992E-01 3.579E-01
  61250.82 7.171E-01 3.325E-01
  61279.03 7.339E-01 3.094E-01
  61307.24 7.482E-01 2.901E-01
  61335.47 7.580E-01 2.771E-01
  61363.71 7.640E-01 2.692E-01
  61391.96 7.658E-01 2.668E-01
  61420.23 7.644E-01 2.687E-01
  61448.51 7.596E-01 2.750E-01
  61476.80 7.519E-01 2.852E-01
  61505.10 7.427E-01 2.975E-01
  61533.42 7.315E-01 3.127E-01
  61561.75 7.200E-01 3.285E-01
  61590.10 7.095E-01 3.432E-01
  61618.46 7.012E-01 3.550E-01
  61646.83 6.961E-01 3.623E-01
  61675.21 6.948E-01 3.641E-01
  61703.61 6.971E-01 3.609E-01
  61732.02 7.022E-01 3.536E-01
  61760.44 7.091E-01 3.437E-01
  61788.88 7.162E-01 3.338E-01
  61817.33 7.225E-01 3.250E-01
  61845.79 7.264E-01 3.197E-01
  61874.26 7.279E-01 3.175E-01
  61902.75 7.266E-01 3.194E-01
  61931.25 7.206E-01 3.277E-01
  61959.77 7.121E-01 3.396E-01
  61988.30 7.000E-01 3.566E-01
  62016.84 6.843E-01 3.793E-01
  62045.39 6.658E-01 4.067E-01
  62073.96 6.455E-01 4.377E-01
  62102.54 6.249E-01 4.701E-01
  62131.13 6.051E-01 5.023E-01
  62159.74 5.879E-01 5.313E-01
  62188.36 5.750E-01 5.534E-01
  62216.99 5.668E-01 5.678E-01
  62245.64 5.624E-01 5.755E-01
  62274.30 5.619E-01 5.764E-01
  62302.97 5.646E-01 5.717E-01
  62331.66 5.705E-01 5.612E-01
  62360.35 5.807E-01 5.436E-01
  62389.07 5.951E-01 5.191E-01
  62417.79 6.143E-01 4.873E-01
  62446.53 6.367E-01 4.514E-01
  62475.28 6.612E-01 4.138E-01
  62504.05 6.851E-01 3.781E-01
  62532.83 7.049E-01 3.496E-01
  62561.62 7.197E-01 3.290E-01
  62590.42 7.282E-01 3.172E-01
  62619.24 7.305E-01 3.141E-01
  62648.07 7.272E-01 3.185E-01
  62676.92 7.200E-01 3.285E-01
  62705.78 7.105E-01 3.417E-01
  62734.65 7.002E-01 3.563E-01
  62763.53 6.895E-01 3.718E-01
  62792.43 6.799E-01 3.858E-01
  62821.34 6.730E-01 3.959E-01
  62850.26 6.689E-01 4.022E-01
  62879.20 6.682E-01 4.031E-01
  62908.15 6.711E-01 3.989E-01
  62937.12 6.770E-01 3.901E-01
  62966.10 6.845E-01 3.790E-01
  62995.09 6.923E-01 3.677E-01
  63024.09 6.986E-01 3.586E-01
  63053.11 7.015E-01 3.545E-01
  63082.14 7.007E-01 3.557E-01
  63111.18 6.950E-01 3.639E-01
  63140.24 6.843E-01 3.793E-01
  63169.31 6.690E-01 4.020E-01
  63198.40 6.506E-01 4.298E-01
  63227.50 6.306E-01 4.611E-01
  63256.61 6.108E-01 4.930E-01
  63285.73 5.937E-01 5.214E-01
  63314.87 5.814E-01 5.423E-01
  63344.02 5.749E-01 5.535E-01
  63373.19 5.749E-01 5.536E-01
  63402.37 5.798E-01 5.451E-01
  63431.56 5.881E-01 5.309E-01
  63460.76 5.980E-01 5.141E-01
  63489.98 6.084E-01 4.970E-01
  63519.22 6.172E-01 4.825E-01
  63548.46 6.253E-01 4.696E-01
  63577.72 6.316E-01 4.595E-01
  63606.99 6.375E-01 4.501E-01
  63636.28 6.439E-01 4.402E-01
  63665.58 6.493E-01 4.319E-01
  63694.89 6.555E-01 4.224E-01
  63724.22 6.618E-01 4.128E-01
  63753.56 6.684E-01 4.028E-01
  63782.91 6.752E-01 3.927E-01
  63812.28 6.822E-01 3.824E-01
  63841.66 6.892E-01 3.722E-01
  63871.06 6.954E-01 3.633E-01
  63900.46 7.012E-01 3.550E-01
  63929.88 7.055E-01 3.488E-01
  63959.32 7.086E-01 3.444E-01
  63988.77 7.106E-01 3.416E-01
  64018.23 7.121E-01 3.396E-01
  64047.71 7.124E-01 3.391E-01
  64077.19 7.125E-01 3.390E-01
  64106.70 7.130E-01 3.383E-01
  64136.21 7.133E-01 3.379E-01
  64165.74 7.133E-01 3.379E-01
  64195.29 7.128E-01 3.385E-01
  64224.84 7.105E-01 3.418E-01
  64254.41 7.065E-01 3.475E-01
  64284.00 7.004E-01 3.561E-01
  64313.60 6.920E-01 3.681E-01
  64343.21 6.814E-01 3.835E-01
  64372.83 6.706E-01 3.996E-01
  64402.47 6.607E-01 4.144E-01
  64432.13 6.522E-01 4.273E-01
  64461.79 6.456E-01 4.376E-01
  64491.47 6.408E-01 4.451E-01
  64521.16 6.376E-01 4.500E-01
  64550.87 6.350E-01 4.541E-01
  64580.59 6.316E-01 4.595E-01
  64610.33 6.285E-01 4.643E-01
  64640.08 6.258E-01 4.688E-01
  64669.84 6.244E-01 4.709E-01
  64699.61 6.251E-01 4.699E-01
  64729.40 6.280E-01 4.652E-01
  64759.20 6.328E-01 4.576E-01
  64789.02 6.387E-01 4.484E-01
  64818.85 6.458E-01 4.373E-01
  64848.70 6.532E-01 4.259E-01
  64878.55 6.608E-01 4.143E-01
  64908.43 6.697E-01 4.010E-01
  64938.31 6.798E-01 3.860E-01
  64968.21 6.901E-01 3.709E-01
  64998.12 7.005E-01 3.560E-01
  65028.05 7.098E-01 3.427E-01
  65057.99 7.177E-01 3.316E-01
  65087.94 7.227E-01 3.248E-01
  65117.91 7.245E-01 3.222E-01
  65147.89 7.237E-01 3.234E-01
  65177.89 7.206E-01 3.277E-01
  65207.90 7.156E-01 3.346E-01
  65237.92 7.094E-01 3.433E-01
  65267.96 7.031E-01 3.523E-01
  65298.01 6.970E-01 3.609E-01
  65328.08 6.914E-01 3.691E-01
  65358.15 6.858E-01 3.771E-01
  65388.25 6.797E-01 3.860E-01
  65418.35 6.728E-01 3.963E-01
  65448.47 6.659E-01 4.066E-01
  65478.61 6.598E-01 4.158E-01
  65508.76 6.550E-01 4.231E-01
  65538.92 6.529E-01 4.263E-01
  65569.09 6.531E-01 4.261E-01
  65599.28 6.547E-01 4.235E-01
  65629.49 6.568E-01 4.203E-01
  65659.70 6.571E-01 4.200E-01
  65689.94 6.540E-01 4.247E-01
  65720.18 6.463E-01 4.364E-01
  65750.44 6.354E-01 4.535E-01
  65780.71 6.213E-01 4.760E-01
  65811.00 6.066E-01 4.998E-01
  65841.30 5.942E-01 5.206E-01
  65871.62 5.857E-01 5.349E-01
  65901.94 5.830E-01 5.396E-01
  65932.29 5.870E-01 5.327E-01
  65962.64 5.975E-01 5.151E-01
  65993.02 6.125E-01 4.902E-01
  66023.40 6.307E-01 4.609E-01
  66053.80 6.498E-01 4.311E-01
  66084.21 6.682E-01 4.031E-01
  66114.64 6.851E-01 3.782E-01
  66145.08 6.995E-01 3.574E-01
  66175.53 7.108E-01 3.414E-01
  66206.00 7.186E-01 3.305E-01
  66236.49 7.225E-01 3.251E-01
  66266.98 7.220E-01 3.257E-01
  66297.49 7.169E-01 3.329E-01
  66328.02 7.084E-01 3.447E-01
  66358.56 6.969E-01 3.611E-01
  66389.11 6.850E-01 3.783E-01
  66419.68 6.741E-01 3.943E-01
  66450.26 6.667E-01 4.054E-01
  66480.85 6.634E-01 4.104E-01
  66511.46 6.644E-01 4.088E-01
  66542.09 6.695E-01 4.012E-01
  66572.73 6.770E-01 3.901E-01
  66603.38 6.862E-01 3.766E-01
  66634.04 6.952E-01 3.636E-01
  66664.72 7.025E-01 3.531E-01
  66695.42 7.065E-01 3.475E-01
  66726.12 7.056E-01 3.487E-01
  66756.85 7.000E-01 3.567E-01
  66787.58 6.908E-01 3.698E-01
  66818.33 6.796E-01 3.862E-01
  66849.10 6.681E-01 4.033E-01
  66879.88 6.596E-01 4.161E-01
  66910.67 6.547E-01 4.235E-01
  66941.48 6.530E-01 4.261E-01
  66972.30 6.532E-01 4.258E-01
  67003.14 6.543E-01 4.241E-01
  67033.99 6.536E-01 4.252E-01
  67064.85 6.494E-01 4.317E-01
  67095.73 6.420E-01 4.432E-01
  67126.62 6.315E-01 4.597E-01
  67157.53 6.200E-01 4.780E-01
  67188.45 6.099E-01 4.945E-01
  67219.38 6.029E-01 5.061E-01
  67250.33 6.004E-01 5.102E-01
  67281.30 6.018E-01 5.078E-01
  67312.27 6.072E-01 4.990E-01
  67343.27 6.147E-01 4.867E-01
  67374.27 6.219E-01 4.749E-01
  67405.29 6.274E-01 4.662E-01
  67436.33 6.309E-01 4.607E-01
  67467.38 6.334E-01 4.566E-01
  67498.44 6.355E-01 4.533E-01
  67529.52 6.391E-01 4.477E-01
  67560.61 6.461E-01 4.368E-01
  67591.72 6.566E-01 4.207E-01
  67622.84 6.683E-01 4.030E-01
  67653.97 6.804E-01 3.850E-01
  67685.12 6.909E-01 3.698E-01
  67716.29 6.982E-01 3.593E-01
  67747.47 7.012E-01 3.549E-01
  67778.66 7.008E-01 3.556E-01
  67809.87 6.978E-01 3.599E-01
  67841.09 6.938E-01 3.656E-01
  67872.32 6.901E-01 3.709E-01
  67903.57 6.885E-01 3.732E-01
  67934.84 6.887E-01 3.730E-01
  67966.12 6.907E-01 3.700E-01
  67997.41 6.948E-01 3.642E-01
  68028.72 6.990E-01 3.580E-01
  68060.04 7.028E-01 3.526E-01
  68091.38 7.042E-01 3.507E-01
  68122.73 7.027E-01 3.529E-01
  68154.09 6.968E-01 3.612E-01
  68185.47 6.864E-01 3.763E-01
  68216.87 6.717E-01 3.979E-01
  68248.28 6.535E-01 4.253E-01
  68279.70 6.325E-01 4.581E-01
  68311.14 6.105E-01 4.936E-01
  68342.59 5.885E-01 5.302E-01
  68374.05 5.681E-01 5.655E-01
  68405.54 5.513E-01 5.954E-01
  68437.03 5.380E-01 6.199E-01
  68468.54 5.297E-01 6.355E-01
  68500.07 5.270E-01 6.405E-01
  68531.61 5.291E-01 6.366E-01
  68563.16 5.352E-01 6.251E-01
  68594.73 5.451E-01 6.068E-01
  68626.31 5.564E-01 5.862E-01
  68657.91 5.696E-01 5.628E-01
  68689.52 5.834E-01 5.389E-01
  68721.15 5.982E-01 5.138E-01
  68752.79 6.134E-01 4.888E-01
  68784.44 6.298E-01 4.624E-01
  68816.11 6.460E-01 4.369E-01
  68847.80 6.615E-01 4.133E-01
  68879.50 6.762E-01 3.912E-01
  68911.21 6.896E-01 3.716E-01
  68942.94 7.018E-01 3.541E-01
  68974.68 7.123E-01 3.393E-01
  69006.44 7.220E-01 3.257E-01
  69038.21 7.302E-01 3.144E-01
  69070.00 7.373E-01 3.047E-01
  69101.80 7.419E-01 2.986E-01
  69133.61 7.438E-01 2.960E-01
  69165.45 7.436E-01 2.962E-01
  69197.29 7.406E-01 3.003E-01
  69229.15 7.345E-01 3.086E-01
  69261.03 7.258E-01 3.205E-01
  69292.92 7.139E-01 3.370E-01
  69324.82 6.991E-01 3.580E-01
  69356.74 6.822E-01 3.824E-01
  69388.67 6.632E-01 4.107E-01
  69420.62 6.430E-01 4.416E-01
  69452.58 6.230E-01 4.732E-01
  69484.56 6.029E-01 5.059E-01
  69516.55 5.853E-01 5.357E-01
  69548.56 5.709E-01 5.606E-01
  69580.58 5.603E-01 5.793E-01
  69612.62 5.550E-01 5.888E-01
  69644.67 5.555E-01 5.878E-01
  69676.74 5.612E-01 5.777E-01
  69708.82 5.723E-01 5.581E-01
  69740.91 5.863E-01 5.339E-01
  69773.02 6.023E-01 5.070E-01
  69805.15 6.181E-01 4.811E-01
  69837.29 6.323E-01 4.584E-01
  69869.44 6.441E-01 4.399E-01
  69901.61 6.528E-01 4.264E-01
  69933.80 6.596E-01 4.161E-01
  69966.00 6.656E-01 4.070E-01
  69998.21 6.718E-01 3.978E-01
  70030.44 6.796E-01 3.862E-01
  70062.68 6.900E-01 3.711E-01
  70094.94 7.011E-01 3.551E-01
  70127.22 7.129E-01 3.384E-01
  70159.50 7.221E-01 3.256E-01
  70191.81 7.287E-01 3.166E-01
  70224.12 7.320E-01 3.120E-01
  70256.46 7.318E-01 3.122E-01
  70288.81 7.285E-01 3.168E-01
  70321.17 7.236E-01 3.235E-01
  70353.55 7.177E-01 3.317E-01
  70385.94 7.119E-01 3.398E-01
  70418.35 7.060E-01 3.482E-01
  70450.77 7.009E-01 3.554E-01
  70483.21 6.956E-01 3.630E-01
  70515.66 6.906E-01 3.701E-01
  70548.12 6.853E-01 3.778E-01
  70580.61 6.794E-01 3.865E-01
  70613.10 6.735E-01 3.952E-01
  70645.62 6.680E-01 4.035E-01
  70678.14 6.634E-01 4.104E-01
  70710.68 6.595E-01 4.163E-01
  70743.24 6.573E-01 4.197E-01
  70775.81 6.560E-01 4.215E-01
  70808.40 6.556E-01 4.223E-01
  70841.00 6.550E-01 4.231E-01
  70873.62 6.550E-01 4.231E-01
  70906.25 6.546E-01 4.237E-01
  70938.90 6.545E-01 4.239E-01
  70971.56 6.543E-01 4.241E-01
  71004.24 6.530E-01 4.262E-01
  71036.93 6.507E-01 4.297E-01
  71069.64 6.454E-01 4.378E-01
  71102.36 6.376E-01 4.501E-01
  71135.10 6.271E-01 4.666E-01
  71167.85 6.139E-01 4.879E-01
  71200.62 6.000E-01 5.109E-01
  71233.40 5.866E-01 5.335E-01
  71266.20 5.755E-01 5.525E-01
  71299.01 5.671E-01 5.673E-01
  71331.84 5.629E-01 5.746E-01
  71364.68 5.619E-01 5.764E-01
  71397.54 5.640E-01 5.726E-01
  71430.41 5.658E-01 5.695E-01
  71463.30 5.671E-01 5.672E-01
  71496.20 5.658E-01 5.696E-01
  71529.12 5.611E-01 5.779E-01
  71562.05 5.539E-01 5.908E-01
  71595.00 5.447E-01 6.076E-01
  71627.97 5.361E-01 6.233E-01
  71660.95 5.306E-01 6.338E-01
  71693.94 5.296E-01 6.357E-01
  71726.95 5.347E-01 6.260E-01
  71759.98 5.447E-01 6.075E-01
  71793.02 5.600E-01 5.798E-01
  71826.07 5.782E-01 5.478E-01
  71859.14 5.966E-01 5.166E-01
  71892.23 6.142E-01 4.874E-01
  71925.33 6.284E-01 4.646E-01
  71958.44 6.393E-01 4.473E-01
  71991.58 6.460E-01 4.370E-01
  72024.72 6.492E-01 4.320E-01
  72057.88 6.496E-01 4.315E-01
  72091.06 6.497E-01 4.312E-01
  72124.25 6.491E-01 4.322E-01
  72157.46 6.500E-01 4.308E-01
  72190.69 6.525E-01 4.269E-01
  72223.92 6.565E-01 4.208E-01
  72257.18 6.606E-01 4.146E-01
  72290.45 6.634E-01 4.103E-01
  72323.73 6.643E-01 4.090E-01
  72357.03 6.619E-01 4.126E-01
  72390.34 6.558E-01 4.219E-01
  72423.68 6.466E-01 4.361E-01
  72457.02 6.339E-01 4.559E-01
  72490.38 6.194E-01 4.790E-01
  72523.76 6.049E-01 5.028E-01
  72557.15 5.900E-01 5.276E-01
  72590.56 5.766E-01 5.505E-01
  72623.98 5.651E-01 5.708E-01
  72657.42 5.557E-01 5.875E-01
  72690.87 5.494E-01 5.989E-01
  72724.34 5.457E-01 6.057E-01
  72757.82 5.440E-01 6.088E-01
  72791.32 5.437E-01 6.093E-01
  72824.84 5.446E-01 6.076E-01
  72858.37 5.463E-01 6.047E-01
  72891.91 5.483E-01 6.009E-01
  72925.48 5.511E-01 5.958E-01
  72959.05 5.558E-01 5.873E-01
  72992.64 5.622E-01 5.758E-01
  73026.25 5.712E-01 5.600E-01
  73059.87 5.835E-01 5.388E-01
  73093.51 5.974E-01 5.152E-01
  73127.17 6.121E-01 4.909E-01
  73160.84 6.257E-01 4.689E-01
  73194.52 6.371E-01 4.508E-01
  73228.22 6.455E-01 4.377E-01
  73261.94 6.502E-01 4.305E-01
  73295.67 6.525E-01 4.269E-01
  73329.42 6.530E-01 4.262E-01
  73363.18 6.503E-01 4.302E-01
  73396.96 6.464E-01 4.363E-01
  73430.75 6.394E-01 4.473E-01
  73464.56 6.293E-01 4.632E-01
  73498.39 6.164E-01 4.838E-01
  73532.23 6.016E-01 5.082E-01
  73566.08 5.866E-01 5.334E-01
  73599.95 5.736E-01 5.558E-01
  73633.84 5.640E-01 5.727E-01
  73667.74 5.604E-01 5.791E-01
  73701.66 5.617E-01 5.767E-01
  73735.60 5.678E-01 5.659E-01
  73769.55 5.779E-01 5.483E-01
  73803.51 5.902E-01 5.273E-01
  73837.49 6.038E-01 5.044E-01
  73871.49 6.177E-01 4.818E-01
  73905.50 6.303E-01 4.616E-01
  73939.53 6.423E-01 4.427E-01
  73973.57 6.531E-01 4.261E-01
  74007.63 6.608E-01 4.143E-01
  74041.71 6.664E-01 4.058E-01
  74075.80 6.683E-01 4.030E-01
  74109.90 6.656E-01 4.070E-01
  74144.03 6.587E-01 4.174E-01
  74178.16 6.468E-01 4.357E-01
  74212.32 6.323E-01 4.584E-01
  74246.49 6.165E-01 4.838E-01
  74280.67 6.020E-01 5.075E-01
  74314.87 5.897E-01 5.281E-01
  74349.09 5.812E-01 5.427E-01
  74383.32 5.765E-01 5.507E-01
  74417.57 5.754E-01 5.526E-01
  74451.83 5.769E-01 5.501E-01
  74486.11 5.809E-01 5.431E-01
  74520.41 5.852E-01 5.358E-01
  74554.72 5.897E-01 5.282E-01
  74589.04 5.945E-01 5.201E-01
  74623.39 5.968E-01 5.163E-01
  74657.75 5.960E-01 5.176E-01
  74692.12 5.938E-01 5.213E-01
  74726.51 5.872E-01 5.323E-01
  74760.92 5.775E-01 5.490E-01
  74795.34 5.653E-01 5.704E-01
  74829.78 5.518E-01 5.945E-01
  74864.23 5.406E-01 6.151E-01
  74898.70 5.332E-01 6.289E-01
  74933.18 5.334E-01 6.285E-01
  74967.68 5.418E-01 6.128E-01
  75002.20 5.591E-01 5.814E-01
  75036.73 5.831E-01 5.394E-01
  75071.28 6.115E-01 4.919E-01
  75105.85 6.389E-01 4.480E-01
  75140.43 6.631E-01 4.108E-01
  75175.02 6.814E-01 3.836E-01
  75209.64 6.940E-01 3.652E-01
  75244.27 6.995E-01 3.574E-01
